Attachment rate const;  temp above which attachment is zero
    3.5e-10,   2000.0                2000.0
 potion  cworkcur cworkener carich awork aarich
  15.68    2.63    4.52      3.0   4.65   3.0
   T	   Kappa      sig      rho        h         cp         eta       U 	   an            ne              mue
  300.  0.400E-03 1.000E-04 1.058E-03  -156.1    1.300E+00 2.270E-04 0.000E+00 2.4464E19	1.E-12 		1.5464E4
 1000.  0.800E-03 3.000E-04 3.528E-04  1.000E+02 1.300E+00 4.000E-04 0.000E+00 7.3373E18	1.E-12		1.5464E4
 2000.  1.270E-03 1.000E-03 1.764E-04  2.150E+03 1.350E+00 6.510E-04 0.000E+00 3.6700E18	1.02E5		1.5464E4
 3000.  4.010E-03 3.000E-03 1.150E-04  4.090E+03 2.720E+00 8.610E-04 0.000E+00 2.4458E18	5.71E10  	1.5464E4
 4000.  5.850E-03 1.000E-02 7.660E-05  7.730E+03 4.070E+00 1.080E-03 0.000E+00 1.8400E18	6.10E12  	1.5464E4
 5000.  6.100E-03 3.000E-02 5.820E-05  1.030E+04 2.790E+00 1.310E-03 1.494E-06 1.4675E18	6.27E13  	1.5464E4
 6000.  20.30E-03 5.100E-01 4.470E-05  1.500E+04 7.500E+00 1.540E-03 1.539E-04 1.2228E18	2.61E14   	1.5464E4
 7000.  35.10E-03 3.120E+00 3.160E-05  2.630E+04 13.90E+00 1.860E-03 4.425E-03 1.0476E18	7.22E14	        1.5464E4
 8000.  19.70E-03 9.610E+00 2.340E-05  3.800E+04 8.080E+00 2.210E-03 6.063E-02 9.0612E17	2.34E15 	1.15464E4  
 9000.  11.80E-03 1.885E+01 1.980E-05  4.360E+04 4.240E+00 2.440E-03 8.133E-01 8.0100E17	7.26E15	        1.15464E4
10000.  12.60E-03 2.883E+01 1.740E-05  4.790E+04 4.750E+00 2.520E-03 1.038E+01 6.9800E17	1.83E16	        1.15464E4
11000.  15.70E-03 3.883E+01 1.530E-05  5.380E+04 7.100E+00 2.390E-03 5.469E+01 5.9614E17	3.57E16   	6.79029E3
12000.  19.50E-03 4.874E+01 1.320E-05  6.260E+04 10.80E+00 2.040E-03 1.705E+02 4.7500E17	6.80E16	        4.4399E3
13000.  23.00E-03 5.835E+01 1.120E-05  7.570E+04 15.60E+00 1.560E-03 3.877E+02 3.4368E17	1.11E17	        3.25943E3
14000.  25.20E-03 6.728E+01 9.360E-06  9.370E+04 20.00E+00 1.080E-03 6.979E+02 2.3900E17	1.43E17 	2.7008E3 
15000.  25.70E-03 7.521E+01 7.790E-06  1.150E+05 21.60E+00 7.040E-04 9.637E+02 1.1960E17	1.65E17	        2.50656E3
16000.  24.90E-03 8.208E+01 6.620E-06  1.350E+05 19.30E+00 4.500E-04 1.076E+03 8.2701E16	1.88E17	        2.53743E3
17000.  23.80E-03 8.820E+01 5.800E-06  1.530E+05 14.80E+00 2.960E-04 1.098E+03 2.9178E16	1.90E17 	2.703E3
18000.  23.30E-03 9.381E+01 5.240E-06  1.650E+05 10.50E+00 2.110E-04 1.074E+03 2.42E16  	1.92E17	        2.94447E3
19000.  23.60E-03 9.896E+01 4.840E-06  1.740E+05 7.630E+00 1.670E-04 1.038E+03 1.90E16	        1.91E17 	3.2218E3
20000.  24.50E-03 1.034E+02 4.530E-06  1.810E+05 6.030E+00 1.460E-04 1.046E+03 7.63E15	        1.80E17 	3.49783E3
21000.  26.10E-03 1.064E+02 4.270E-06  1.860E+05 5.370E+00 1.380E-04 1.116E+03 4.53E15  	1.73E17 	3.72651E3
22000.  28.20E-03 1.076E+02 4.050E-06  1.920E+05 5.530E+00 1.370E-04 1.279E+03 2.79E15	        1.66E17 	3.8574E3 
23000.  30.50E-03 1.066E+02 3.850E-06  1.980E+05 6.550E+00 1.380E-04 1.594E+03 1.96E15   	1.60E17	        3.87035E3
24000.  33.10E-03 1.046E+02 3.650E-06  2.050E+05 8.650E+00 1.380E-04 2.125E+03 1.13E15  	1.55E17 	3.8033E3
25000.  35.90E-03 1.028E+02 3.450E-06  2.150E+05 1.190E+01 1.340E-04 2.938E+03 8.10E14  	1.53E17 	3.72752E3
26000.  38.70E-03 1.020E+02 3.250E-06  2.290E+05 1.620E+01 1.260E-04 4.134E+03 4.88E14  	1.48E17         3.69737E3
27000.  41.40E-03 1.024E+02 3.030E-06  2.480E+05 2.100E+01 1.140E-04 5.750E+03 3.48E14  	1.47E17 	3.73449E3
28000.  44.10E-03 1.037E+02 2.820E-06  2.710E+05 2.560E+01 9.970E-05 7.822E+03 2.08E14          1.46E17         3.83E3
29000.  46.70E-03 1.057E+02 2.610E-06  2.990E+05 2.860E+01 8.380E-05 1.050E+04 1.46E14  	1.46E17 	3.98442E3
30000.  49.20E-03 1.081E+02 2.410E-06  3.280E+05 2.970E+01 7.060E-05 1.394E+04 8.31E13  	1.46E17 	4.16724E3
31000.  53.18E-03 1.106E+02 2.350E-06  3.600E+05 3.000E+01 5.400E-05 1.394E+04 4.00E13  	1.44E17 	4.16724E3
32000.  56.28E-03 1.128E+02 2.290E-06  3.900E+05 3.000E+01 5.200E-05 1.394E+04 2.00E13  	1.42E17 	4.16724E3
33000.  59.42E-03 1.147E+02 2.230E-06  4.200E+05 3.000E+01 5.000E-05 1.394E+04 1.57E13  	1.40E17 	4.16724E3
34000.  62.54E-03 1.161E+02 2.170E-06  4.500E+05 3.000E+01 4.800E-05 1.394E+04 1.00E13  	1.38E17 	4.16724E3
35000.  65.60E-03 1.170E+02 2.110E-06  4.800E+05 3.000E+01 4.500E-05 1.394E+04 6.56E12  	1.36E17 	4.16724E3
36000.  68.59E-03 1.174E+02 2.050E-06  5.100E+05 3.000E+01 4.200E-05 1.394E+04 4.00E12	        1.33E17 	4.16724E3
37000.  71.54E-03 1.177E+02 2.010E-06  5.400E+05 3.000E+01 3.900E-05 1.394E+04 3.00E12	        1.30E17 	4.16724E3
38000.  74.56E-03 1.181E+02 1.940E-06  5.700E+05 3.000E+01 3.600E-05 1.394E+04 2.00E12  	1.28E17 	4.16724E3
39000.  74.56E-03 1.181E+02 1.870E-06  6.000E+05 3.000E+01 3.600E-05 1.394E+04 1.00E12  	1.26E17 	4.16724E3
40000.  74.56E-03 1.181E+02 1.810E-06  6.300E+05 3.000E+01 3.600E-05 1.394E+04 5.73E11  	1.23E17 	4.16724E3
cathode thermal conductivity
2.40 1.21 1.00 0.913 0.880 0.85 35*0.85
cathode electrical conductivity
220000. 40000. 17500. 10900. 7700. 5900. 35*5900.
anode thermal conductivity
4.33 3.57 2.70 2.70 2.70 2.70 35*2.70
anode electrical conductivity
1200000. 146842. 39*75383.
cathode emission, density, cp (41)
0.3  18.91  0.1257 0.1501277 0.1756867 0.2032569 0.220813 36*0.22
anode emission, density, cp (41)
0.12  7.9   0.3771 0.47347 49*0.5028

end of read

cathode tmlc, stc, viscosity
50000  1000  1.e10 1.e5 3.95 1.58 37*1.58 40

Cu      4.65    3.0
ThW 	2.63    3.0  
W 	4.52    72.0  
bFe 	4.48    26.0  
gFe 	4.21    1.5  

15.68 2.6    3.0  4.63   3.0  1.

15.68 3.53    60.0  4.63   3.0  1.

0.123  0.2429 0.1879 0.2203 37*0.2203
13513. 8000. 6896. 38*6896.
  
2.40 1.21 1.00 0.913 0.880 0.85 35*0.85
220000. 40000. 17500. 10900. 7700. 5900. 35*5900.
4.33 3.57 2.70 2.70 2.70 2.70 35*2.70
 1200000. 146842. 39*75383.
     
Tungsten
2.40 1.21 1.00 0.913 0.880 0.85 35*0.85
 220000. 40000. 17500. 10900. 7700. 5900. 35*5900.
 
Th. Cond./ El. Cond.     steel
0.1244 0.2316 0.4200 1.4200 37*1.42
 13513. 8000. 6896. 38*6896.

Th. Cond./ El. Cond.    carbon
0.13 0.064  0.035  0.022 0.020 0.020 35*0.020
 1136. 1359. 1033.  917.  893.  893.  35*.893
 
Th. Cond./ El. Cond.    tungsten
 2.40 1.21 1.00 0.913 0.880 0.85 35*0.85
  220000. 40000. 17500. 10900. 7700. 5900. 35*5900.
  
Th. Cond./ El. Cond.    copper
4.33 3.57 2.70 2.70 2.70 2.70 35*2.70
1200000. 146842. 39*75383.

Th. Cond./ El. Cond.     stainless steel
0.123  0.2429 0.1879 0.2203 37*0.2203
 13513. 8000. 6896. 38*6896.
 
Em, Rho, SH
 tungsten
0.3  18.91  0.1257 0.1501277 0.1756867 0.2032569 0.220813 36*0.22
copper
0.12  7.9   0.3771 0.47347 49*0.5028
Stainless Steel
0.35  6.8   0.5112 0.605   49*0.7942

Viscosity
Stainless steel
1700 1800 1900 2000 2100 2200 2300 2400 2500 2600 2700 2800 2900 3000
6.42 5.36 4.57 3.95 3.47 3.08 2.76 2.50 2.28 2.10 1.94 1.80 1.69 1.58
